Frequency (Hz)	Level (dB)
488.281250	-57.187294
976.562500	-54.400562
1464.843750	-51.081806
1953.125000	-51.407299
2441.406250	-45.987850
2929.687500	-52.409721
3417.968750	-57.822727
3906.250000	-52.669277
4394.531250	-55.329487
4882.812500	-53.553513
5371.093750	-54.618332
5859.375000	-49.011223
6347.656250	-50.140667
6835.937500	-50.519310
7324.218750	-52.868458
7812.500000	-48.192284
8300.781250	-46.586487
8789.062500	-46.888184
9277.343750	-43.075932
9765.625000	-46.489235
10253.906250	-45.460514
10742.187500	-45.507053
11230.468750	-42.524826
11718.750000	-44.772629
12207.031250	-43.770599
12695.312500	-41.102486
13183.593750	-41.886433
13671.875000	-38.987900
14160.156250	-37.458904
14648.437500	-36.924385
15136.718750	-34.681755
15625.000000	-32.043331
16113.281250	-29.151875
16601.562500	-24.140427
17089.843750	-12.751929
17578.125000	-17.984814
18066.406250	-26.245281
18554.687500	-30.121433
19042.968750	-32.687645
19531.250000	-34.836922
20019.531250	-35.456554
20507.812500	-34.769035
20996.093750	-31.660334
21484.375000	-22.540760
21972.656250	-21.442242
22460.937500	-30.202131
22949.218750	-34.077663
23437.500000	-36.331657
23925.781250	-38.302372
24414.062500	-39.439072
24902.343750	-38.645962
25390.625000	-40.384411
25878.906250	-41.519524
26367.187500	-41.933605
26855.468750	-43.152916
27343.750000	-43.507183
27832.031250	-43.776558
28320.312500	-44.865025
28808.593750	-44.866867
29296.875000	-45.360355
29785.156250	-44.572826
30273.437500	-45.534554
30761.718750	-45.509277
31250.000000	-46.426331
31738.281250	-47.020920
32226.562500	-46.952690
32714.843750	-47.383953
33203.125000	-47.551014
33691.406250	-47.604557
34179.687500	-48.168755
34667.968750	-48.509800
35156.250000	-48.259113
35644.531250	-48.465885
36132.812500	-48.781864
36621.093750	-48.430630
37109.375000	-49.674854
37597.656250	-50.119015
38085.937500	-50.025948
38574.218750	-50.007889
39062.500000	-50.163841
39550.781250	-50.451145
40039.062500	-50.371483
40527.343750	-50.593586
41015.625000	-50.763371
41503.906250	-51.035965
41992.187500	-51.187401
42480.468750	-51.333565
42968.750000	-51.519573
43457.031250	-51.558220
43945.312500	-51.674690
44433.593750	-51.918861
44921.875000	-51.838638
45410.156250	-52.376446
45898.437500	-52.138943
46386.718750	-52.351154
46875.000000	-52.438671
47363.281250	-52.501526
47851.562500	-52.880188
48339.843750	-52.746071
48828.125000	-53.036369
49316.406250	-53.072533
49804.687500	-53.285656
50292.968750	-53.275837
50781.250000	-53.204041
51269.531250	-53.305847
51757.812500	-53.898563
52246.093750	-53.964832
52734.375000	-54.024342
53222.656250	-53.934597
53710.937500	-53.879173
54199.218750	-54.215084
54687.500000	-54.244560
55175.781250	-54.625057
55664.062500	-54.403786
56152.343750	-54.585114
56640.625000	-54.776295
57128.906250	-55.008095
57617.187500	-54.886341
58105.468750	-54.814037
58593.750000	-55.170933
59082.031250	-55.601078
59570.312500	-55.120518
60058.593750	-55.594444
60546.875000	-55.263401
61035.156250	-55.144905
61523.437500	-55.640633
62011.718750	-55.902073
62500.000000	-55.575657
62988.281250	-55.409752
63476.562500	-55.760384
63964.843750	-55.636673
64453.125000	-55.966515
64941.406250	-56.087955
65429.687500	-56.322647
65917.968750	-56.426723
66406.250000	-55.876335
66894.531250	-56.036140
67382.812500	-56.494698
67871.093750	-55.986927
68359.375000	-56.811314
68847.656250	-57.161343
69335.937500	-57.296417
69824.218750	-57.224548
70312.500000	-56.899242
70800.781250	-57.233505
71289.062500	-57.216908
71777.343750	-56.542084
72265.625000	-57.483349
72753.906250	-57.759346
73242.187500	-57.214046
73730.468750	-57.498146
74218.750000	-57.266361
74707.031250	-57.121349
75195.312500	-57.318604
75683.593750	-58.298729
76171.875000	-57.705414
76660.156250	-58.021450
77148.437500	-58.148392
77636.718750	-57.349251
78125.000000	-57.805923
78613.281250	-57.924229
79101.562500	-58.330673
79589.843750	-57.930298
80078.125000	-58.430340
80566.406250	-57.733540
81054.687500	-58.107174
81542.968750	-59.022182
82031.250000	-57.976402
82519.531250	-58.562756
83007.812500	-58.328487
83496.093750	-58.851814
83984.375000	-58.491058
84472.656250	-59.184025
84960.937500	-58.909878
85449.218750	-59.180920
85937.500000	-58.649456
86425.781250	-59.023949
86914.062500	-58.985500
87402.343750	-58.844090
87890.625000	-59.124962
88378.906250	-59.174408
88867.187500	-59.558723
89355.468750	-60.255032
89843.750000	-58.867107
90332.031250	-59.326904
90820.312500	-59.189178
91308.593750	-59.091763
91796.875000	-59.110863
92285.156250	-59.200748
92773.437500	-59.390835
93261.718750	-59.771946
93750.000000	-59.883339
94238.281250	-59.958336
94726.562500	-59.286034
95214.843750	-58.539318
95703.125000	-59.398678
96191.406250	-60.307251
96679.687500	-60.455868
97167.968750	-59.492371
97656.250000	-60.343014
98144.531250	-60.040710
98632.812500	-60.186069
99121.093750	-60.379253
99609.375000	-60.440781
100097.656250	-60.534199
100585.937500	-60.195679
101074.218750	-59.721413
101562.500000	-60.515377
102050.781250	-59.461361
102539.062500	-59.759960
103027.343750	-60.341541
103515.625000	-60.602619
104003.906250	-61.037926
104492.187500	-60.500950
104980.468750	-61.709351
105468.750000	-60.600109
105957.031250	-61.482918
106445.312500	-60.393436
106933.593750	-61.298553
107421.875000	-60.496517
107910.156250	-62.209908
108398.437500	-60.926018
108886.718750	-61.212585
109375.000000	-60.623531
109863.281250	-61.822109
110351.562500	-61.255383
110839.843750	-60.111649
111328.125000	-61.081963
111816.406250	-60.588322
112304.687500	-61.579781
112792.968750	-61.566433
113281.250000	-61.737984
113769.531250	-62.178314
114257.812500	-61.211357
114746.093750	-61.601509
115234.375000	-61.410816
115722.656250	-62.137852
116210.937500	-61.951984
116699.218750	-61.892838
117187.500000	-61.622955
117675.781250	-62.424789
118164.062500	-61.378647
118652.343750	-62.620674
119140.625000	-62.135216
119628.906250	-62.563637
120117.187500	-61.889359
120605.468750	-62.280148
121093.750000	-61.929703
121582.031250	-62.107220
122070.312500	-63.006500
122558.593750	-62.721901
123046.875000	-61.620190
123535.156250	-62.751202
124023.437500	-62.267590
124511.718750	-62.125286
125000.000000	-62.407967
125488.281250	-62.797009
125976.562500	-62.981621
126464.843750	-63.158077
126953.125000	-62.066013
127441.406250	-62.598480
127929.687500	-61.879879
128417.968750	-62.783974
128906.250000	-62.359146
129394.531250	-63.009132
129882.812500	-62.373520
130371.093750	-63.050972
130859.375000	-62.609940
131347.656250	-63.303383
131835.937500	-62.496742
132324.218750	-62.360870
132812.500000	-63.527889
133300.781250	-62.570168
133789.062500	-63.165310
134277.343750	-61.574814
134765.625000	-63.067402
135253.906250	-62.670879
135742.187500	-63.206573
136230.468750	-62.475868
136718.750000	-63.455441
137207.031250	-62.285069
137695.312500	-63.505199
138183.593750	-61.924057
138671.875000	-63.080334
139160.156250	-63.485992
139648.437500	-63.135056
140136.718750	-64.348480
140625.000000	-62.492805
141113.281250	-63.892719
141601.562500	-63.623901
142089.843750	-63.178509
142578.125000	-63.978687
143066.406250	-63.667740
143554.687500	-63.587212
144042.968750	-63.189804
144531.250000	-63.800205
145019.531250	-63.973972
145507.812500	-64.211006
145996.093750	-64.097534
146484.375000	-63.813011
146972.656250	-63.296257
147460.937500	-63.389854
147949.218750	-63.942822
148437.500000	-64.658379
148925.781250	-63.255589
149414.062500	-63.476078
149902.343750	-65.543106
150390.625000	-63.569698
150878.906250	-62.303745
151367.187500	-64.577003
151855.468750	-63.879948
152343.750000	-65.398888
152832.031250	-63.390358
153320.312500	-64.069870
153808.593750	-64.091766
154296.875000	-64.726089
154785.156250	-64.558472
155273.437500	-64.079697
155761.718750	-66.261681
156250.000000	-63.713902
156738.281250	-63.965508
157226.562500	-64.736626
157714.843750	-64.728928
158203.125000	-64.439682
158691.406250	-64.477127
159179.687500	-63.681438
159667.968750	-63.998310
160156.250000	-63.761852
160644.531250	-65.437691
161132.812500	-64.836899
161621.093750	-66.802284
162109.375000	-65.346474
162597.656250	-64.138550
163085.937500	-64.514099
163574.218750	-65.226761
164062.500000	-65.270706
164550.781250	-64.107140
165039.062500	-65.130150
165527.343750	-65.245483
166015.625000	-64.725761
166503.906250	-63.174404
166992.187500	-64.891174
167480.468750	-66.547211
167968.750000	-64.981300
168457.031250	-64.195389
168945.312500	-64.334938
169433.593750	-65.361198
169921.875000	-64.805946
170410.156250	-65.218300
170898.437500	-65.343849
171386.718750	-65.309555
171875.000000	-65.453522
172363.281250	-65.653252
172851.562500	-65.443260
173339.843750	-65.738831
173828.125000	-64.996948
174316.406250	-64.553116
174804.687500	-64.070206
175292.968750	-65.297394
175781.250000	-65.743202
176269.531250	-64.970718
176757.812500	-65.661568
177246.093750	-65.860451
177734.375000	-65.111885
178222.656250	-66.736382
178710.937500	-65.710358
179199.218750	-66.389626
179687.500000	-65.567459
180175.781250	-65.233116
180664.062500	-64.396141
181152.343750	-65.586113
181640.625000	-65.775101
182128.906250	-64.102013
182617.187500	-65.813759
183105.468750	-65.913345
183593.750000	-66.569710
184082.031250	-64.070885
184570.312500	-65.750816
185058.593750	-66.237915
185546.875000	-64.987923
186035.156250	-66.284210
186523.437500	-65.948517
187011.718750	-65.270523
187500.000000	-65.933624
187988.281250	-67.590836
188476.562500	-67.310997
188964.843750	-66.417992
189453.125000	-65.302658
189941.406250	-66.633530
190429.687500	-65.694008
190917.968750	-65.823219
191406.250000	-65.310005
191894.531250	-66.274178
192382.812500	-66.200455
192871.093750	-65.442184
193359.375000	-65.606941
193847.656250	-67.212509
194335.937500	-65.030945
194824.218750	-65.754593
195312.500000	-65.107063
195800.781250	-65.691124
196289.062500	-65.427803
196777.343750	-64.199287
197265.625000	-65.548210
197753.906250	-65.197693
198242.187500	-67.590782
198730.468750	-67.524094
199218.750000	-65.581886
199707.031250	-65.582458
200195.312500	-67.084335
200683.593750	-66.784088
201171.875000	-66.553253
201660.156250	-65.593575
202148.437500	-66.530846
202636.718750	-67.543732
203125.000000	-65.752411
203613.281250	-65.668533
204101.562500	-66.226974
204589.843750	-66.281822
205078.125000	-67.115616
205566.406250	-66.717911
206054.687500	-67.099373
206542.968750	-66.926483
207031.250000	-66.513115
207519.531250	-67.923714
208007.812500	-66.530457
208496.093750	-69.543114
208984.375000	-65.501831
209472.656250	-67.433861
209960.937500	-66.740860
210449.218750	-66.733391
210937.500000	-67.136826
211425.781250	-64.768761
211914.062500	-68.279213
212402.343750	-64.942833
212890.625000	-65.618729
213378.906250	-67.417976
213867.187500	-68.593864
214355.468750	-67.758301
214843.750000	-66.663452
215332.031250	-66.544319
215820.312500	-67.576256
216308.593750	-66.818481
216796.875000	-67.987198
217285.156250	-66.746239
217773.437500	-68.506599
218261.718750	-66.708206
218750.000000	-69.543564
219238.281250	-67.864204
219726.562500	-68.408730
220214.843750	-65.627151
220703.125000	-66.130142
221191.406250	-66.881752
221679.687500	-66.795982
222167.968750	-69.230171
222656.250000	-66.910393
223144.531250	-67.822823
223632.812500	-67.697792
224121.093750	-68.639778
224609.375000	-66.467934
225097.656250	-66.456314
225585.937500	-66.316574
226074.218750	-69.730415
226562.500000	-67.782928
227050.781250	-67.544731
227539.062500	-67.944389
228027.343750	-67.309532
228515.625000	-68.502174
229003.906250	-67.404350
229492.187500	-68.348114
229980.468750	-67.148125
230468.750000	-67.538582
230957.031250	-67.976334
231445.312500	-67.578239
231933.593750	-67.728767
232421.875000	-66.904015
232910.156250	-68.246452
233398.437500	-67.688492
233886.718750	-66.701172
234375.000000	-66.561157
234863.281250	-66.523933
235351.562500	-67.811890
235839.843750	-66.651749
236328.125000	-67.206055
236816.406250	-72.292252
237304.687500	-67.999146
237792.968750	-66.293915
238281.250000	-67.870918
238769.531250	-66.601471
239257.812500	-66.432983
239746.093750	-68.175026
240234.375000	-69.418098
240722.656250	-66.204544
241210.937500	-68.482765
241699.218750	-66.601242
242187.500000	-68.699409
242675.781250	-66.089882
243164.062500	-70.317696
243652.343750	-68.200180
244140.625000	-68.148560
244628.906250	-68.157036
245117.187500	-68.319725
245605.468750	-67.319908
246093.750000	-67.137268
246582.031250	-70.409370
247070.312500	-68.175896
247558.593750	-68.001915
248046.875000	-68.171738
248535.156250	-66.378380
249023.437500	-67.576714
249511.718750	-66.272156
250000.000000	-67.261589
250488.281250	-68.139297
250976.562500	-67.880730
251464.843750	-70.827660
251953.125000	-68.244057
252441.406250	-68.483925
252929.687500	-67.945251
253417.968750	-69.499153
253906.250000	-70.419472
254394.531250	-67.441055
254882.812500	-68.075287
255371.093750	-67.467522
255859.375000	-68.235985
256347.656250	-66.805305
256835.937500	-69.065483
257324.218750	-69.439270
257812.500000	-68.261658
258300.781250	-66.208557
258789.062500	-67.836563
259277.343750	-65.774010
259765.625000	-68.039474
260253.906250	-70.374893
260742.187500	-70.794922
261230.468750	-67.839020
261718.750000	-67.594170
262207.031250	-66.773827
262695.312500	-68.018951
263183.593750	-66.784233
263671.875000	-68.198318
264160.156250	-68.386108
264648.437500	-68.998230
265136.718750	-69.330009
265625.000000	-68.293526
266113.281250	-67.224747
266601.562500	-68.323502
267089.843750	-70.811073
267578.125000	-67.560661
268066.406250	-70.665916
268554.687500	-69.206993
269042.968750	-67.328514
269531.250000	-69.645233
270019.531250	-70.309875
270507.812500	-68.763466
270996.093750	-69.717560
271484.375000	-68.402161
271972.656250	-68.020035
272460.937500	-68.687027
272949.218750	-67.902916
273437.500000	-67.553169
273925.781250	-68.857758
274414.062500	-67.398613
274902.343750	-68.523315
275390.625000	-69.361626
275878.906250	-72.113617
276367.187500	-69.514915
276855.468750	-68.777039
277343.750000	-68.521797
277832.031250	-70.004196
278320.312500	-68.676437
278808.593750	-71.287453
279296.875000	-69.963318
279785.156250	-72.346909
280273.437500	-68.121933
280761.718750	-68.590210
281250.000000	-68.358719
281738.281250	-68.544846
282226.562500	-69.306709
282714.843750	-67.972832
283203.125000	-68.570992
283691.406250	-67.529434
284179.687500	-68.172104
284667.968750	-70.259941
285156.250000	-69.619194
285644.531250	-70.271675
286132.812500	-70.115952
286621.093750	-69.838097
287109.375000	-68.290756
287597.656250	-68.891533
288085.937500	-68.780167
288574.218750	-66.534111
289062.500000	-68.454742
289550.781250	-70.375183
290039.062500	-69.716469
290527.343750	-69.738922
291015.625000	-68.713097
291503.906250	-66.924889
291992.187500	-69.707230
292480.468750	-69.950859
292968.750000	-68.399422
293457.031250	-68.417023
293945.312500	-69.771248
294433.593750	-69.424973
294921.875000	-68.856178
295410.156250	-72.350456
295898.437500	-69.010353
296386.718750	-68.836609
296875.000000	-70.302948
297363.281250	-70.802071
297851.562500	-69.955498
298339.843750	-68.456810
298828.125000	-70.244942
299316.406250	-69.880463
299804.687500	-70.060104
300292.968750	-67.745148
300781.250000	-69.860542
301269.531250	-70.919754
301757.812500	-69.031181
302246.093750	-68.322929
302734.375000	-69.688530
303222.656250	-70.970139
303710.937500	-68.109016
304199.218750	-69.134277
304687.500000	-70.034546
305175.781250	-68.265488
305664.062500	-69.391891
306152.343750	-68.996254
306640.625000	-69.235817
307128.906250	-70.852982
307617.187500	-70.522453
308105.468750	-70.443802
308593.750000	-69.122147
309082.031250	-68.356285
309570.312500	-70.192245
310058.593750	-69.772797
310546.875000	-68.436462
311035.156250	-72.145454
311523.437500	-70.118980
312011.718750	-67.748253
312500.000000	-69.669876
312988.281250	-69.447815
313476.562500	-69.403893
313964.843750	-74.883797
314453.125000	-70.195717
314941.406250	-70.952225
315429.687500	-68.584747
315917.968750	-71.955788
316406.250000	-70.150909
316894.531250	-68.001053
317382.812500	-69.371086
317871.093750	-71.584160
318359.375000	-70.244087
318847.656250	-68.840416
319335.937500	-68.366844
319824.218750	-71.537292
320312.500000	-69.228218
320800.781250	-69.605896
321289.062500	-69.568657
321777.343750	-70.928368
322265.625000	-70.835983
322753.906250	-68.882874
323242.187500	-70.451675
323730.468750	-69.116821
324218.750000	-69.571991
324707.031250	-71.018913
325195.312500	-70.632423
325683.593750	-71.710411
326171.875000	-70.666183
326660.156250	-71.132278
327148.437500	-70.472610
327636.718750	-70.693146
328125.000000	-69.622971
328613.281250	-71.338921
329101.562500	-71.065491
329589.843750	-67.268661
330078.125000	-70.386078
330566.406250	-69.952202
331054.687500	-70.387352
331542.968750	-75.715073
332031.250000	-69.901451
332519.531250	-70.723137
333007.812500	-70.592705
333496.093750	-69.665535
333984.375000	-70.999519
334472.656250	-70.347771
334960.937500	-69.273560
335449.218750	-70.447029
335937.500000	-70.108040
336425.781250	-67.987015
336914.062500	-71.653847
337402.343750	-70.360069
337890.625000	-70.487152
338378.906250	-70.904297
338867.187500	-68.578278
339355.468750	-72.259026
339843.750000	-71.397118
340332.031250	-74.442604
340820.312500	-68.948524
341308.593750	-74.053787
341796.875000	-69.604851
342285.156250	-71.916290
342773.437500	-69.068398
343261.718750	-70.198624
343750.000000	-71.129349
344238.281250	-73.197807
344726.562500	-72.345085
345214.843750	-73.922287
345703.125000	-70.678215
346191.406250	-72.065491
346679.687500	-68.963844
347167.968750	-69.511940
347656.250000	-72.539619
348144.531250	-72.572197
348632.812500	-71.480881
349121.093750	-70.084221
349609.375000	-71.343391
350097.656250	-74.065147
350585.937500	-71.369080
351074.218750	-70.532211
351562.500000	-70.275398
352050.781250	-71.900894
352539.062500	-72.855896
353027.343750	-69.507042
353515.625000	-69.406700
354003.906250	-72.696304
354492.187500	-71.327629
354980.468750	-70.865265
355468.750000	-70.112335
355957.031250	-68.068665
356445.312500	-70.385635
356933.593750	-69.750168
357421.875000	-70.333572
357910.156250	-72.886978
358398.437500	-70.516685
358886.718750	-72.496483
359375.000000	-68.733833
359863.281250	-71.677086
360351.562500	-70.134872
360839.843750	-74.447945
361328.125000	-71.516960
361816.406250	-73.211365
362304.687500	-69.823502
362792.968750	-68.694832
363281.250000	-70.899475
363769.531250	-73.483986
364257.812500	-69.870827
364746.093750	-70.141495
365234.375000	-68.966423
365722.656250	-73.141670
366210.937500	-69.898392
366699.218750	-70.439407
367187.500000	-72.248245
367675.781250	-73.629379
368164.062500	-70.499336
368652.343750	-69.246788
369140.625000	-70.896767
369628.906250	-70.819786
370117.187500	-70.852249
370605.468750	-72.663773
371093.750000	-71.838524
371582.031250	-70.690750
372070.312500	-70.192070
372558.593750	-72.253281
373046.875000	-71.184830
373535.156250	-71.164070
374023.437500	-71.926224
374511.718750	-72.893631
375000.000000	-70.252182
375488.281250	-72.367065
375976.562500	-71.779518
376464.843750	-73.417747
376953.125000	-71.211945
377441.406250	-71.448914
377929.687500	-71.675262
378417.968750	-71.778374
378906.250000	-71.297340
379394.531250	-70.780022
379882.812500	-71.073212
380371.093750	-73.361160
380859.375000	-71.851395
381347.656250	-70.928909
381835.937500	-72.767883
382324.218750	-71.988968
382812.500000	-72.080750
383300.781250	-70.299774
383789.062500	-69.616730
384277.343750	-73.010345
384765.625000	-69.956558
385253.906250	-70.967628
385742.187500	-69.648964
386230.468750	-70.563545
386718.750000	-69.821503
387207.031250	-69.121834
387695.312500	-72.226494
388183.593750	-70.876999
388671.875000	-69.198761
389160.156250	-73.391747
389648.437500	-73.874474
390136.718750	-70.731789
390625.000000	-69.729279
391113.281250	-69.640053
391601.562500	-71.276268
392089.843750	-74.805275
392578.125000	-72.448936
393066.406250	-73.278221
393554.687500	-70.686333
394042.968750	-76.481880
394531.250000	-72.267639
395019.531250	-73.948936
395507.812500	-71.979271
395996.093750	-71.978104
396484.375000	-70.127647
396972.656250	-74.968742
397460.937500	-71.434593
397949.218750	-74.777924
398437.500000	-73.759186
398925.781250	-72.276825
399414.062500	-72.669243
399902.343750	-75.492767
400390.625000	-70.768768
400878.906250	-66.731247
401367.187500	-72.780807
401855.468750	-73.775925
402343.750000	-72.993423
402832.031250	-72.182205
403320.312500	-71.268066
403808.593750	-72.137787
404296.875000	-73.093513
404785.156250	-74.569092
405273.437500	-71.340622
405761.718750	-71.567978
406250.000000	-70.887016
406738.281250	-73.481827
407226.562500	-71.020508
407714.843750	-71.764313
408203.125000	-72.462425
408691.406250	-73.439522
409179.687500	-70.701256
409667.968750	-72.893707
410156.250000	-72.040810
410644.531250	-72.906479
411132.812500	-70.898636
411621.093750	-70.596657
412109.375000	-72.215210
412597.656250	-71.447006
413085.937500	-71.264122
413574.218750	-70.769440
414062.500000	-71.779655
414550.781250	-69.280510
415039.062500	-71.461037
415527.343750	-70.751953
416015.625000	-71.611389
416503.906250	-70.812149
416992.187500	-72.169289
417480.468750	-70.286858
417968.750000	-71.605347
418457.031250	-69.595703
418945.312500	-72.583992
419433.593750	-72.761772
419921.875000	-71.019775
420410.156250	-78.931480
420898.437500	-71.363968
421386.718750	-75.428406
421875.000000	-69.812378
422363.281250	-72.245766
422851.562500	-71.035164
423339.843750	-68.751732
423828.125000	-72.870224
424316.406250	-71.515739
424804.687500	-72.549232
425292.968750	-70.440765
425781.250000	-69.625328
426269.531250	-71.457451
426757.812500	-71.831764
427246.093750	-72.644592
427734.375000	-72.003983
428222.656250	-71.682297
428710.937500	-71.828499
429199.218750	-70.125343
429687.500000	-73.089546
430175.781250	-70.944733
430664.062500	-72.312447
431152.343750	-75.881584
431640.625000	-70.992134
432128.906250	-71.984032
432617.187500	-73.093323
433105.468750	-71.912315
433593.750000	-72.700775
434082.031250	-70.782219
434570.312500	-72.091812
435058.593750	-70.886833
435546.875000	-69.964706
436035.156250	-71.095963
436523.437500	-72.663704
437011.718750	-72.669197
437500.000000	-72.255447
437988.281250	-72.909706
438476.562500	-70.625000
438964.843750	-71.480812
439453.125000	-71.804153
439941.406250	-73.034904
440429.687500	-72.349800
440917.968750	-70.051109
441406.250000	-71.860428
441894.531250	-73.689796
442382.812500	-71.357658
442871.093750	-68.558739
443359.375000	-71.659164
443847.656250	-72.471367
444335.937500	-70.209213
444824.218750	-74.334000
445312.500000	-73.399529
445800.781250	-74.266403
446289.062500	-70.819893
446777.343750	-74.050377
447265.625000	-73.065552
447753.906250	-70.680756
448242.187500	-70.535736
448730.468750	-71.003746
449218.750000	-70.632912
449707.031250	-72.353775
450195.312500	-73.236504
450683.593750	-72.631729
451171.875000	-71.991287
451660.156250	-72.299309
452148.437500	-71.473839
452636.718750	-79.418129
453125.000000	-71.306450
453613.281250	-73.207672
454101.562500	-70.513306
454589.843750	-71.036827
455078.125000	-70.922600
455566.406250	-72.695305
456054.687500	-72.641823
456542.968750	-72.284424
457031.250000	-71.578209
457519.531250	-69.875488
458007.812500	-70.426804
458496.093750	-73.960091
458984.375000	-71.433105
459472.656250	-71.993523
459960.937500	-71.655045
460449.218750	-70.246117
460937.500000	-70.807472
461425.781250	-74.695389
461914.062500	-71.591980
462402.343750	-75.610550
462890.625000	-71.286835
463378.906250	-71.992348
463867.187500	-70.675774
464355.468750	-74.977890
464843.750000	-70.163330
465332.031250	-72.123032
465820.312500	-72.391403
466308.593750	-70.901398
466796.875000	-73.922623
467285.156250	-72.927010
467773.437500	-71.914841
468261.718750	-72.985817
468750.000000	-71.176170
469238.281250	-70.643944
469726.562500	-74.613434
470214.843750	-73.214005
470703.125000	-74.394722
471191.406250	-74.654198
471679.687500	-73.831985
472167.968750	-72.583252
472656.250000	-74.443413
473144.531250	-72.721504
473632.812500	-72.183182
474121.093750	-70.644569
474609.375000	-72.681808
475097.656250	-71.487007
475585.937500	-74.668373
476074.218750	-73.598000
476562.500000	-73.068619
477050.781250	-74.015991
477539.062500	-72.943932
478027.343750	-69.541451
478515.625000	-72.118347
479003.906250	-76.452515
479492.187500	-72.933662
479980.468750	-77.088455
480468.750000	-73.689537
480957.031250	-69.486862
481445.312500	-73.727913
481933.593750	-73.870163
482421.875000	-72.457451
482910.156250	-73.093399
483398.437500	-73.491814
483886.718750	-69.271988
484375.000000	-75.036484
484863.281250	-71.508202
485351.562500	-72.420563
485839.843750	-76.831940
486328.125000	-72.853401
486816.406250	-77.977150
487304.687500	-73.847786
487792.968750	-76.147697
488281.250000	-76.128426
488769.531250	-74.659058
489257.812500	-71.819885
489746.093750	-72.817322
490234.375000	-72.296471
490722.656250	-70.406029
491210.937500	-71.668861
491699.218750	-74.816811
492187.500000	-71.485168
492675.781250	-74.943207
493164.062500	-72.289421
493652.343750	-71.112259
494140.625000	-71.155891
494628.906250	-70.342911
495117.187500	-71.554176
495605.468750	-71.663277
496093.750000	-73.311424
496582.031250	-74.606911
497070.312500	-73.167755
497558.593750	-72.083328
498046.875000	-71.438858
498535.156250	-71.484535
499023.437500	-73.821823
499511.718750	-71.924881
500000.000000	-72.564972
500488.281250	-78.452675
500976.562500	-71.532265
501464.843750	-69.884583
501953.125000	-73.256721
502441.406250	-75.225731
502929.687500	-72.815292
503417.968750	-71.122749
503906.250000	-70.371216
504394.531250	-74.504471
504882.812500	-72.228943
505371.093750	-73.074432
505859.375000	-73.401680
506347.656250	-72.139214
506835.937500	-72.233681
507324.218750	-71.321762
507812.500000	-72.648056
508300.781250	-70.024376
508789.062500	-74.050468
509277.343750	-76.616196
509765.625000	-72.007462
510253.906250	-72.099915
510742.187500	-74.402504
511230.468750	-75.413574
511718.750000	-72.178734
512207.031250	-77.436539
512695.312500	-71.413185
513183.593750	-72.420395
513671.875000	-73.958313
514160.156250	-75.330673
514648.437500	-72.449265
515136.718750	-71.065910
515625.000000	-73.164345
516113.281250	-75.889046
516601.562500	-72.896759
517089.843750	-72.862587
517578.125000	-72.623787
518066.406250	-73.051956
518554.687500	-72.781227
519042.968750	-73.251694
519531.250000	-73.962357
520019.531250	-69.856049
520507.812500	-73.228836
520996.093750	-72.207115
521484.375000	-71.212997
521972.656250	-76.538071
522460.937500	-74.666801
522949.218750	-70.949501
523437.500000	-72.777954
523925.781250	-82.357880
524414.062500	-72.210609
524902.343750	-71.444893
525390.625000	-73.432602
525878.906250	-71.155251
526367.187500	-70.583061
526855.468750	-72.088043
527343.750000	-74.220970
527832.031250	-70.277100
528320.312500	-75.292137
528808.593750	-80.497276
529296.875000	-73.847305
529785.156250	-74.031441
530273.437500	-73.446335
530761.718750	-77.717934
531250.000000	-73.277115
531738.281250	-73.392136
532226.562500	-72.622383
532714.843750	-74.591423
533203.125000	-71.854668
533691.406250	-75.435555
534179.687500	-71.750473
534667.968750	-72.067139
535156.250000	-75.880043
535644.531250	-72.358383
536132.812500	-71.685623
536621.093750	-73.677200
537109.375000	-76.375473
537597.656250	-72.281883
538085.937500	-76.391090
538574.218750	-77.853317
539062.500000	-72.928467
539550.781250	-74.633980
540039.062500	-71.822914
540527.343750	-71.238625
541015.625000	-70.421272
541503.906250	-72.445099
541992.187500	-73.865067
542480.468750	-73.058350
542968.750000	-73.803276
543457.031250	-74.608734
543945.312500	-74.802444
544433.593750	-71.456375
544921.875000	-71.143997
545410.156250	-71.359886
545898.437500	-74.036217
546386.718750	-77.832550
546875.000000	-76.482315
547363.281250	-71.975006
547851.562500	-72.724190
548339.843750	-77.357689
548828.125000	-72.282547
549316.406250	-70.918755
549804.687500	-76.289871
550292.968750	-74.833473
550781.250000	-77.706032
551269.531250	-74.008148
551757.812500	-72.987122
552246.093750	-79.388855
552734.375000	-70.433296
553222.656250	-77.196564
553710.937500	-71.125687
554199.218750	-73.555656
554687.500000	-76.674706
555175.781250	-75.895782
555664.062500	-72.959846
556152.343750	-70.575645
556640.625000	-73.588173
557128.906250	-77.850967
557617.187500	-73.165092
558105.468750	-72.173798
558593.750000	-71.674667
559082.031250	-74.244621
559570.312500	-72.410103
560058.593750	-71.473404
560546.875000	-71.464615
561035.156250	-73.528030
561523.437500	-70.755043
562011.718750	-75.523819
562500.000000	-74.060951
562988.281250	-75.843979
563476.562500	-74.869118
563964.843750	-73.269447
564453.125000	-71.940407
564941.406250	-76.298187
565429.687500	-74.527390
565917.968750	-71.371857
566406.250000	-73.800621
566894.531250	-75.857025
567382.812500	-73.436981
567871.093750	-74.979263
568359.375000	-73.135139
568847.656250	-72.688461
569335.937500	-73.698776
569824.218750	-80.870819
570312.500000	-74.073624
570800.781250	-73.633484
571289.062500	-72.983322
571777.343750	-75.850365
572265.625000	-77.170494
572753.906250	-72.878578
573242.187500	-72.766830
573730.468750	-75.898453
574218.750000	-73.753952
574707.031250	-77.121834
575195.312500	-72.770668
575683.593750	-72.526482
576171.875000	-76.835938
576660.156250	-77.019455
577148.437500	-75.947342
577636.718750	-74.116714
578125.000000	-75.133614
578613.281250	-78.538857
579101.562500	-72.626808
579589.843750	-72.196716
580078.125000	-74.011627
580566.406250	-70.553062
581054.687500	-73.367500
581542.968750	-72.157051
582031.250000	-73.964203
582519.531250	-75.326683
583007.812500	-73.429314
583496.093750	-72.438675
583984.375000	-73.018257
584472.656250	-73.935501
584960.937500	-74.142998
585449.218750	-75.445694
585937.500000	-72.551498
586425.781250	-78.601906
586914.062500	-75.465141
587402.343750	-70.964668
587890.625000	-76.736877
588378.906250	-74.687141
588867.187500	-71.038734
589355.468750	-75.225601
589843.750000	-72.655113
590332.031250	-69.593887
590820.312500	-72.590408
591308.593750	-71.034645
591796.875000	-74.036530
592285.156250	-73.554764
592773.437500	-70.968140
593261.718750	-72.335403
593750.000000	-75.074005
594238.281250	-72.786217
594726.562500	-73.942795
595214.843750	-74.201324
595703.125000	-72.115677
596191.406250	-70.732780
596679.687500	-71.673386
597167.968750	-71.319603
597656.250000	-77.155212
598144.531250	-70.392265
598632.812500	-72.709785
599121.093750	-78.714462
599609.375000	-72.519157
600097.656250	-72.943207
600585.937500	-74.292213
601074.218750	-75.946579
601562.500000	-72.474327
602050.781250	-76.147743
602539.062500	-73.675735
603027.343750	-71.839935
603515.625000	-73.799988
604003.906250	-72.974602
604492.187500	-75.102264
604980.468750	-73.135056
605468.750000	-71.463539
605957.031250	-71.862282
606445.312500	-73.792175
606933.593750	-71.600243
607421.875000	-73.671913
607910.156250	-70.581207
608398.437500	-74.500504
608886.718750	-76.231804
609375.000000	-75.213837
609863.281250	-73.972504
610351.562500	-73.038277
610839.843750	-78.319466
611328.125000	-72.658501
611816.406250	-72.994461
612304.687500	-76.485474
612792.968750	-74.515343
613281.250000	-76.597084
613769.531250	-74.892487
614257.812500	-73.882027
614746.093750	-75.999016
615234.375000	-73.362000
615722.656250	-70.646988
616210.937500	-71.448868
616699.218750	-72.835411
617187.500000	-74.726234
617675.781250	-72.452286
618164.062500	-73.519768
618652.343750	-72.484344
619140.625000	-73.772087
619628.906250	-74.462570
620117.187500	-75.004112
620605.468750	-72.255882
621093.750000	-74.625946
621582.031250	-73.891327
622070.312500	-72.382065
622558.593750	-69.158257
623046.875000	-76.580452
623535.156250	-77.514923
624023.437500	-73.235634
624511.718750	-78.017929
625000.000000	-78.002533
625488.281250	-75.604439
625976.562500	-74.403488
626464.843750	-73.128403
626953.125000	-72.806030
627441.406250	-73.372108
627929.687500	-74.154686
628417.968750	-71.282578
628906.250000	-74.681572
629394.531250	-74.091042
629882.812500	-76.687294
630371.093750	-73.111214
630859.375000	-75.854805
631347.656250	-75.473480
631835.937500	-75.193840
632324.218750	-74.041275
632812.500000	-75.079826
633300.781250	-76.793732
633789.062500	-75.645538
634277.343750	-75.988411
634765.625000	-74.977074
635253.906250	-76.655029
635742.187500	-72.836288
636230.468750	-73.308876
636718.750000	-75.353142
637207.031250	-71.954010
637695.312500	-75.800606
638183.593750	-74.526756
638671.875000	-75.691193
639160.156250	-75.041687
639648.437500	-73.288475
640136.718750	-71.054581
640625.000000	-72.146637
641113.281250	-73.659569
641601.562500	-73.055984
642089.843750	-71.976364
642578.125000	-80.847771
643066.406250	-73.370049
643554.687500	-74.997017
644042.968750	-74.419563
644531.250000	-76.896950
645019.531250	-74.543991
645507.812500	-74.188980
645996.093750	-74.788033
646484.375000	-74.642311
646972.656250	-71.105095
647460.937500	-73.818260
647949.218750	-77.567482
648437.500000	-75.992661
648925.781250	-72.644852
649414.062500	-75.817665
649902.343750	-69.749115
650390.625000	-72.836578
650878.906250	-74.861382
651367.187500	-75.836922
651855.468750	-72.357796
652343.750000	-76.121231
652832.031250	-73.402763
653320.312500	-72.776016
653808.593750	-76.968460
654296.875000	-73.568306
654785.156250	-75.712189
655273.437500	-75.180771
655761.718750	-80.153023
656250.000000	-72.862122
656738.281250	-76.888992
657226.562500	-72.584335
657714.843750	-78.375038
658203.125000	-74.693199
658691.406250	-75.167015
659179.687500	-77.295174
659667.968750	-73.686066
660156.250000	-74.061119
660644.531250	-75.000168
661132.812500	-75.782501
661621.093750	-74.731514
662109.375000	-76.104027
662597.656250	-80.573830
663085.937500	-74.086166
663574.218750	-74.683418
664062.500000	-73.436844
664550.781250	-73.401184
665039.062500	-72.942009
665527.343750	-79.174057
666015.625000	-73.262924
666503.906250	-74.874298
666992.187500	-74.626968
667480.468750	-74.814072
667968.750000	-72.040047
668457.031250	-73.157768
668945.312500	-76.606552
669433.593750	-76.433113
669921.875000	-75.340111
670410.156250	-75.317146
670898.437500	-73.183708
671386.718750	-69.739471
671875.000000	-73.114944
672363.281250	-73.609932
672851.562500	-75.368271
673339.843750	-69.448853
673828.125000	-77.912621
674316.406250	-70.013077
674804.687500	-74.148849
675292.968750	-73.646225
675781.250000	-73.422249
676269.531250	-70.854263
676757.812500	-71.202545
677246.093750	-82.810272
677734.375000	-73.308533
678222.656250	-73.244888
678710.937500	-73.080688
679199.218750	-73.264954
679687.500000	-78.690033
680175.781250	-77.142578
680664.062500	-73.388954
681152.343750	-75.388710
681640.625000	-77.059090
682128.906250	-75.460052
682617.187500	-76.011810
683105.468750	-78.664505
683593.750000	-77.302330
684082.031250	-73.267776
684570.312500	-77.509216
685058.593750	-81.185501
685546.875000	-74.513748
686035.156250	-73.554268
686523.437500	-72.324615
687011.718750	-75.490028
687500.000000	-78.574715
687988.281250	-72.866692
688476.562500	-74.786331
688964.843750	-73.747696
689453.125000	-72.931015
689941.406250	-74.672318
690429.687500	-75.116203
690917.968750	-73.947739
691406.250000	-72.636391
691894.531250	-73.800705
692382.812500	-72.668549
692871.093750	-77.508118
693359.375000	-73.188232
693847.656250	-72.667671
694335.937500	-75.158127
694824.218750	-79.699326
695312.500000	-75.679001
695800.781250	-76.709564
696289.062500	-71.333160
696777.343750	-79.312088
697265.625000	-72.600563
697753.906250	-72.379173
698242.187500	-75.059456
698730.468750	-73.680313
699218.750000	-72.378784
699707.031250	-70.887054
700195.312500	-73.305138
700683.593750	-75.682755
701171.875000	-75.571289
701660.156250	-73.357590
702148.437500	-72.051880
702636.718750	-70.592995
703125.000000	-75.762665
703613.281250	-74.756874
704101.562500	-75.776733
704589.843750	-75.162682
705078.125000	-75.069740
705566.406250	-71.287857
706054.687500	-74.091927
706542.968750	-73.378136
707031.250000	-72.475647
707519.531250	-75.290337
708007.812500	-74.120445
708496.093750	-72.032028
708984.375000	-71.255501
709472.656250	-74.990028
709960.937500	-75.875862
710449.218750	-77.935226
710937.500000	-74.398033
711425.781250	-81.771286
711914.062500	-74.902695
712402.343750	-76.231300
712890.625000	-74.523430
713378.906250	-70.901764
713867.187500	-73.574989
714355.468750	-80.219780
714843.750000	-72.913864
715332.031250	-77.607666
715820.312500	-75.156052
716308.593750	-71.831718
716796.875000	-77.105011
717285.156250	-74.545425
717773.437500	-75.618919
718261.718750	-72.058228
718750.000000	-73.189026
719238.281250	-72.793350
719726.562500	-76.264954
720214.843750	-71.354576
720703.125000	-73.922089
721191.406250	-75.420807
721679.687500	-74.265663
722167.968750	-77.873085
722656.250000	-74.574196
723144.531250	-73.628868
723632.812500	-72.733345
724121.093750	-73.985504
724609.375000	-71.410881
725097.656250	-72.448372
725585.937500	-73.335495
726074.218750	-76.629639
726562.500000	-75.329483
727050.781250	-74.699387
727539.062500	-77.367058
728027.343750	-75.028938
728515.625000	-71.514023
729003.906250	-74.223961
729492.187500	-73.608818
729980.468750	-75.365456
730468.750000	-74.342628
730957.031250	-70.638298
731445.312500	-76.586464
731933.593750	-76.977165
732421.875000	-75.875580
732910.156250	-75.632645
733398.437500	-75.325012
733886.718750	-83.486008
734375.000000	-73.617462
734863.281250	-75.785072
735351.562500	-74.140427
735839.843750	-78.101341
736328.125000	-74.024414
736816.406250	-75.437653
737304.687500	-75.695259
737792.968750	-73.596458
738281.250000	-74.543694
738769.531250	-71.279366
739257.812500	-75.189293
739746.093750	-78.953163
740234.375000	-74.889580
740722.656250	-71.637894
741210.937500	-74.940514
741699.218750	-78.546249
742187.500000	-77.544701
742675.781250	-79.880798
743164.062500	-80.427101
743652.343750	-75.218201
744140.625000	-75.663727
744628.906250	-72.388298
745117.187500	-74.327293
745605.468750	-77.184853
746093.750000	-76.891838
746582.031250	-77.206566
747070.312500	-72.644318
747558.593750	-74.072075
748046.875000	-73.791122
748535.156250	-74.757225
749023.437500	-74.303360
749511.718750	-71.405815
750000.000000	-75.974930
750488.281250	-76.061981
750976.562500	-72.856201
751464.843750	-73.786362
751953.125000	-74.769203
752441.406250	-68.437790
752929.687500	-77.077095
753417.968750	-73.622795
753906.250000	-72.903969
754394.531250	-72.412956
754882.812500	-75.598557
755371.093750	-72.675049
755859.375000	-76.434013
756347.656250	-73.797485
756835.937500	-73.262222
757324.218750	-75.350983
757812.500000	-76.632355
758300.781250	-71.709488
758789.062500	-74.002106
759277.343750	-83.287514
759765.625000	-76.904045
760253.906250	-72.381271
760742.187500	-77.255966
761230.468750	-84.539703
761718.750000	-75.624489
762207.031250	-73.654701
762695.312500	-72.347137
763183.593750	-76.084351
763671.875000	-74.817657
764160.156250	-75.556740
764648.437500	-72.584084
765136.718750	-79.376923
765625.000000	-73.827148
766113.281250	-72.354401
766601.562500	-74.029892
767089.843750	-74.555702
767578.125000	-71.754936
768066.406250	-75.421585
768554.687500	-73.643738
769042.968750	-76.368675
769531.250000	-75.699852
770019.531250	-70.373688
770507.812500	-75.982079
770996.093750	-71.772041
771484.375000	-72.348961
771972.656250	-75.186661
772460.937500	-73.867859
772949.218750	-81.612114
773437.500000	-75.079132
773925.781250	-79.608749
774414.062500	-74.762436
774902.343750	-78.634315
775390.625000	-78.596771
775878.906250	-73.776024
776367.187500	-76.999863
776855.468750	-79.107071
777343.750000	-74.940712
777832.031250	-74.265617
778320.312500	-73.279617
778808.593750	-72.506538
779296.875000	-73.993248
779785.156250	-76.847908
780273.437500	-76.150024
780761.718750	-78.133102
781250.000000	-75.856621
781738.281250	-73.343758
782226.562500	-75.326408
782714.843750	-79.361595
783203.125000	-76.661720
783691.406250	-77.776237
784179.687500	-75.169739
784667.968750	-71.892616
785156.250000	-76.834648
785644.531250	-76.591789
786132.812500	-74.969933
786621.093750	-75.283249
787109.375000	-72.260475
787597.656250	-75.674812
788085.937500	-76.490852
788574.218750	-79.977264
789062.500000	-77.688484
789550.781250	-74.788414
790039.062500	-75.176582
790527.343750	-73.407471
791015.625000	-72.180862
791503.906250	-74.413910
791992.187500	-75.843681
792480.468750	-76.779617
792968.750000	-73.120979
793457.031250	-72.117828
793945.312500	-75.511719
794433.593750	-80.173737
794921.875000	-76.234871
795410.156250	-74.357994
795898.437500	-75.334389
796386.718750	-73.705612
796875.000000	-75.615372
797363.281250	-77.126976
797851.562500	-74.059052
798339.843750	-75.901970
798828.125000	-76.314819
799316.406250	-78.218918
799804.687500	-74.394569
800292.968750	-74.315247
800781.250000	-74.262352
801269.531250	-77.330826
801757.812500	-81.824280
802246.093750	-73.411125
802734.375000	-76.370033
803222.656250	-75.775108
803710.937500	-77.690460
804199.218750	-71.946754
804687.500000	-75.337479
805175.781250	-69.886703
805664.062500	-75.028870
806152.343750	-75.066780
806640.625000	-73.504715
807128.906250	-71.580788
807617.187500	-74.126404
808105.468750	-82.893990
808593.750000	-75.649719
809082.031250	-79.118950
809570.312500	-76.654755
810058.593750	-71.750946
810546.875000	-73.833176
811035.156250	-83.353294
811523.437500	-75.913261
812011.718750	-74.901482
812500.000000	-74.142326
812988.281250	-73.846848
813476.562500	-78.048683
813964.843750	-77.273865
814453.125000	-77.315720
814941.406250	-73.948006
815429.687500	-75.915886
815917.968750	-75.777672
816406.250000	-73.574715
816894.531250	-77.419235
817382.812500	-75.309166
817871.093750	-73.455467
818359.375000	-73.885185
818847.656250	-73.703667
819335.937500	-73.394455
819824.218750	-76.826500
820312.500000	-81.610382
820800.781250	-77.021080
821289.062500	-74.072807
821777.343750	-78.778328
822265.625000	-73.795021
822753.906250	-71.152634
823242.187500	-73.694954
823730.468750	-71.615280
824218.750000	-74.074272
824707.031250	-71.578674
825195.312500	-74.276596
825683.593750	-75.245613
826171.875000	-72.562500
826660.156250	-77.334259
827148.437500	-74.392418
827636.718750	-74.921875
828125.000000	-74.965973
828613.281250	-76.936195
829101.562500	-77.219009
829589.843750	-73.695198
830078.125000	-72.536392
830566.406250	-75.117912
831054.687500	-73.958069
831542.968750	-76.308380
832031.250000	-73.133041
832519.531250	-79.555603
833007.812500	-77.386490
833496.093750	-71.379631
833984.375000	-76.504410
834472.656250	-76.382332
834960.937500	-75.568695
835449.218750	-77.416649
835937.500000	-71.552086
836425.781250	-82.205032
836914.062500	-73.455734
837402.343750	-74.364815
837890.625000	-76.517052
838378.906250	-78.203598
838867.187500	-73.807587
839355.468750	-73.376228
839843.750000	-75.802597
840332.031250	-73.717140
840820.312500	-75.089096
841308.593750	-73.330383
841796.875000	-73.821518
842285.156250	-74.775887
842773.437500	-76.840302
843261.718750	-75.563705
843750.000000	-77.461891
844238.281250	-72.365265
844726.562500	-72.797211
845214.843750	-74.556801
845703.125000	-76.417740
846191.406250	-81.425774
846679.687500	-75.184021
847167.968750	-75.034531
847656.250000	-76.813332
848144.531250	-71.471970
848632.812500	-73.745926
849121.093750	-76.328911
849609.375000	-74.714020
850097.656250	-76.569435
850585.937500	-73.256050
851074.218750	-78.219666
851562.500000	-73.138504
852050.781250	-76.996490
852539.062500	-74.142479
853027.343750	-77.217514
853515.625000	-75.085983
854003.906250	-72.860153
854492.187500	-77.387039
854980.468750	-76.087250
855468.750000	-74.937401
855957.031250	-80.983818
856445.312500	-71.935753
856933.593750	-75.932045
857421.875000	-78.111252
857910.156250	-78.708023
858398.437500	-74.670471
858886.718750	-71.846230
859375.000000	-79.310028
859863.281250	-75.166229
860351.562500	-74.489182
860839.843750	-77.894630
861328.125000	-76.772675
861816.406250	-74.349480
862304.687500	-74.865585
862792.968750	-73.601387
863281.250000	-76.564636
863769.531250	-77.083290
864257.812500	-74.297508
864746.093750	-79.298355
865234.375000	-72.330559
865722.656250	-76.480606
866210.937500	-73.022301
866699.218750	-74.021896
867187.500000	-75.731003
867675.781250	-75.802544
868164.062500	-76.443146
868652.343750	-75.704865
869140.625000	-77.687889
869628.906250	-74.238876
870117.187500	-74.786476
870605.468750	-76.593681
871093.750000	-76.397758
871582.031250	-75.237587
872070.312500	-75.187424
872558.593750	-82.244026
873046.875000	-71.213165
873535.156250	-81.008217
874023.437500	-77.906441
874511.718750	-74.023529
875000.000000	-73.880989
875488.281250	-78.222641
875976.562500	-73.535507
876464.843750	-74.905487
876953.125000	-79.844521
877441.406250	-72.213181
877929.687500	-73.229408
878417.968750	-71.091362
878906.250000	-81.381531
879394.531250	-68.792328
879882.812500	-72.755684
880371.093750	-75.243919
880859.375000	-73.635933
881347.656250	-78.570343
881835.937500	-74.575623
882324.218750	-79.459526
882812.500000	-72.767174
883300.781250	-76.540779
883789.062500	-74.803589
884277.343750	-78.706871
884765.625000	-74.166733
885253.906250	-77.396042
885742.187500	-76.397057
886230.468750	-72.843689
886718.750000	-75.525093
887207.031250	-76.139870
887695.312500	-75.190926
888183.593750	-76.133377
888671.875000	-73.282951
889160.156250	-80.291725
889648.437500	-75.404495
890136.718750	-75.304291
890625.000000	-76.315865
891113.281250	-75.224571
891601.562500	-77.823990
892089.843750	-75.773628
892578.125000	-74.560303
893066.406250	-73.912506
893554.687500	-75.211243
894042.968750	-82.076675
894531.250000	-72.519226
895019.531250	-73.576202
895507.812500	-73.158447
895996.093750	-75.509537
896484.375000	-72.501190
896972.656250	-75.488647
897460.937500	-74.804291
897949.218750	-78.218185
898437.500000	-75.773460
898925.781250	-72.460815
899414.062500	-74.753105
899902.343750	-74.630836
900390.625000	-74.227013
900878.906250	-76.408882
901367.187500	-75.405434
901855.468750	-74.655220
902343.750000	-78.259766
902832.031250	-79.338905
903320.312500	-74.156517
903808.593750	-76.781563
904296.875000	-74.253242
904785.156250	-70.422684
905273.437500	-73.686409
905761.718750	-77.659370
906250.000000	-75.184708
906738.281250	-75.031143
907226.562500	-75.114441
907714.843750	-77.000580
908203.125000	-75.439369
908691.406250	-77.760445
909179.687500	-75.659409
909667.968750	-80.489380
910156.250000	-74.765533
910644.531250	-72.053787
911132.812500	-75.755844
911621.093750	-73.297516
912109.375000	-74.183525
912597.656250	-77.592201
913085.937500	-79.360085
913574.218750	-74.962555
914062.500000	-76.533653
914550.781250	-77.169647
915039.062500	-75.834976
915527.343750	-78.558685
916015.625000	-72.529060
916503.906250	-78.498306
916992.187500	-75.528458
917480.468750	-76.116341
917968.750000	-76.462723
918457.031250	-80.124939
918945.312500	-75.272835
919433.593750	-75.805855
919921.875000	-76.398148
920410.156250	-76.203613
920898.437500	-76.161781
921386.718750	-74.594139
921875.000000	-79.427330
922363.281250	-77.244102
922851.562500	-75.586220
923339.843750	-73.831940
923828.125000	-74.249870
924316.406250	-77.531921
924804.687500	-79.161774
925292.968750	-75.345375
925781.250000	-73.782135
926269.531250	-75.199669
926757.812500	-80.554291
927246.093750	-80.532539
927734.375000	-85.722862
928222.656250	-74.966225
928710.937500	-74.842293
929199.218750	-77.304535
929687.500000	-79.526451
930175.781250	-73.003822
930664.062500	-73.027100
931152.343750	-78.168068
931640.625000	-74.713768
932128.906250	-74.483650
932617.187500	-76.766983
933105.468750	-75.290970
933593.750000	-71.809532
934082.031250	-75.631691
934570.312500	-74.046692
935058.593750	-76.234146
935546.875000	-76.287415
936035.156250	-74.515373
936523.437500	-74.381866
937011.718750	-72.464142
937500.000000	-81.768562
937988.281250	-72.623756
938476.562500	-72.000450
938964.843750	-81.877342
939453.125000	-75.547523
939941.406250	-73.763283
940429.687500	-76.062592
940917.968750	-77.554062
941406.250000	-74.941238
941894.531250	-75.788033
942382.812500	-77.862129
942871.093750	-81.876556
943359.375000	-72.868385
943847.656250	-72.667969
944335.937500	-76.926842
944824.218750	-78.011482
945312.500000	-73.790184
945800.781250	-78.239098
946289.062500	-76.807320
946777.343750	-75.040207
947265.625000	-75.305534
947753.906250	-75.288773
948242.187500	-75.303322
948730.468750	-74.714012
949218.750000	-75.890762
949707.031250	-74.513161
950195.312500	-75.538155
950683.593750	-72.841377
951171.875000	-75.958282
951660.156250	-81.463280
952148.437500	-75.649498
952636.718750	-79.733765
953125.000000	-76.157341
953613.281250	-73.453407
954101.562500	-76.040970
954589.843750	-75.612793
955078.125000	-76.382843
955566.406250	-77.817688
956054.687500	-73.306297
956542.968750	-76.843033
957031.250000	-74.367760
957519.531250	-75.581680
958007.812500	-72.407516
958496.093750	-72.240768
958984.375000	-77.141205
959472.656250	-74.947525
959960.937500	-74.713211
960449.218750	-73.794571
960937.500000	-73.549294
961425.781250	-76.869026
961914.062500	-80.932434
962402.343750	-81.939873
962890.625000	-80.349892
963378.906250	-69.898460
963867.187500	-76.155434
964355.468750	-72.273766
964843.750000	-74.362701
965332.031250	-75.709419
965820.312500	-76.723915
966308.593750	-74.118248
966796.875000	-77.419609
967285.156250	-84.206131
967773.437500	-74.788681
968261.718750	-78.151451
968750.000000	-77.860649
969238.281250	-74.895996
969726.562500	-73.506348
970214.843750	-81.116890
970703.125000	-76.626923
971191.406250	-78.832687
971679.687500	-75.538216
972167.968750	-80.142380
972656.250000	-77.186005
973144.531250	-73.958290
973632.812500	-77.352623
974121.093750	-74.576912
974609.375000	-74.005196
975097.656250	-75.884048
975585.937500	-77.393883
976074.218750	-75.660622
976562.500000	-72.858490
977050.781250	-73.391243
977539.062500	-73.094826
978027.343750	-72.771004
978515.625000	-77.038895
979003.906250	-72.792831
979492.187500	-72.836540
979980.468750	-74.491898
980468.750000	-77.342232
980957.031250	-76.258652
981445.312500	-76.708977
981933.593750	-78.102615
982421.875000	-73.606453
982910.156250	-75.241859
983398.437500	-74.783661
983886.718750	-77.301147
984375.000000	-73.932457
984863.281250	-76.149849
985351.562500	-74.906395
985839.843750	-78.564240
986328.125000	-75.409821
986816.406250	-78.275108
987304.687500	-77.127625
987792.968750	-73.250267
988281.250000	-82.337257
988769.531250	-79.035385
989257.812500	-75.510109
989746.093750	-72.576561
990234.375000	-76.899910
990722.656250	-72.848305
991210.937500	-73.994797
991699.218750	-74.908913
992187.500000	-77.333977
992675.781250	-74.793312
993164.062500	-72.401688
993652.343750	-75.405136
994140.625000	-79.776932
994628.906250	-73.031906
995117.187500	-74.477882
995605.468750	-81.642334
996093.750000	-74.278366
996582.031250	-69.517899
997070.312500	-76.311455
997558.593750	-70.885597
998046.875000	-74.826912
998535.156250	-74.424980
999023.437500	-76.690056
999511.718750	-73.283943
